File: converter_xlsx_FTIR/group1.xlsx-SLAResin.csv
3996.36,0.006753
3982.86,0.006825
3969.36,0.007294
3955.85,0.006869
3942.35,0.00685
3928.85,0.006903
3915.35,0.006955
3901.85,0.006476
3888.35,0.006994
3874.85,0.006717
3861.35,0.006648
3847.84,0.006357
3834.34,0.00671
3820.84,0.006628
3807.34,0.006678
3793.84,0.00632
3780.34,0.006735
3766.84,0.00622
3753.34,0.006738
3739.83,0.00627
3726.33,0.006222
3712.83,0.006483
3699.33,0.006059
3685.83,0.006085
3672.33,0.006409
3658.83,0.006441
3645.33,0.006755
3631.83,0.007144
3618.32,0.00768
3604.82,0.007838
3591.32,0.008416
3577.82,0.008423
3564.32,0.009246
3550.82,0.009836
3537.32,0.010084
3523.82,0.010275
3510.31,0.010495
3496.81,0.010924
3483.31,0.011452
3469.81,0.01187
3456.31,0.012583
3442.81,0.013507
3429.31,0.014052
3415.81,0.015561
3402.3,0.017263
3388.8,0.019371
3375.3,0.020148
3361.8,0.020318
3348.3,0.019465
3334.8,0.019743
3321.3,0.019385
3307.8,0.018368
3294.29,0.016955
3280.79,0.015875
3267.29,0.014351
3253.79,0.013291
3240.29,0.012704
3226.79,0.011616
3213.29,0.0111
3199.79,0.010889
3186.29,0.010606
3172.78,0.010129
3159.28,0.009953
3145.78,0.009765
3132.28,0.009766
3118.78,0.009387
3105.28,0.009636
3091.78,0.009768
3078.28,0.009966
3064.77,0.010478
3051.27,0.010067
3037.77,0.009909
3024.27,0.010303
3010.77,0.011679
2997.27,0.013994
2983.77,0.017555
2970.27,0.023629
2956.76,0.032293
2943.26,0.032253
2929.76,0.034477
2916.26,0.032948
2902.76,0.027834
2889.26,0.024621
2875.76,0.024151
2862.26,0.024215
2848.75,0.022873
2835.25,0.015518
2821.75,0.012898
2808.25,0.012037
2794.75,0.011609
2781.25,0.010985
2767.75,0.010626
2754.25,0.010426
2740.75,0.010391
2727.24,0.010133
2713.74,0.010036
2700.24,0.009657
2686.74,0.009577
2673.24,0.00965
2659.74,0.009375
2646.24,0.009231
2632.74,0.008638
2619.23,0.008311
2605.73,0.008179
2592.23,0.007753
2578.73,0.007948
2565.23,0.007696
2551.73,0.007493
2538.23,0.007305
2524.73,0.007234
2511.22,0.007624
2497.72,0.007126
2484.22,0.007377
2470.72,0.007175
2457.22,0.006994
2443.72,0.006895
2430.22,0.007132
2416.72,0.006811
2403.22,0.006897
2389.71,0.007077
2376.21,0.007312
2362.71,0.008089
2349.21,0.007803
2335.71,0.008079
2322.21,0.008009
2308.71,0.007118
2295.21,0.006707
2281.7,0.006028
2268.2,0.005965
2254.7,0.005118
2241.2,0.00444
2227.7,0.003856
2214.2,0.004455
2200.7,0.003474
2187.2,0.003496
2173.69,0.003187
2160.19,0.001927
2146.69,0.002518
2133.19,0.00418
2119.69,0.004578
2106.19,0.003741
2092.69,0.004183
2079.19,0.004595
2065.68,0.00414
2052.18,0.00365
2038.68,0.002866
2025.18,0.002133
2011.68,0.002593
1998.18,0.00275
1984.68,0.002548
1971.18,0.002108
1957.68,0.003498
1944.17,0.003537
1930.67,0.003902
1917.17,0.004743
1903.67,0.005091
1890.17,0.005317
1876.67,0.005405
1863.17,0.005442
1849.67,0.005769
1836.16,0.005578
1822.66,0.006077
1809.16,0.006543
1795.66,0.006969
1782.16,0.007358
1768.66,0.008518
1755.16,0.013027
1741.66,0.029986
1728.15,0.05677
1714.65,0.072791
1701.15,0.084015
1687.65,0.073722
1674.15,0.044353
1660.65,0.031589
1647.15,0.027126
1633.65,0.027147
1620.15,0.021642
1606.64,0.018462
1593.14,0.017277
1579.64,0.017597
1566.14,0.023304
1552.64,0.037452
1539.14,0.052237
1525.64,0.056236
1512.14,0.044199
1498.63,0.028609
1485.13,0.031211
1471.63,0.037456
1458.13,0.044338
1444.63,0.043919
1431.13,0.033969
1417.63,0.028931
1404.13,0.029988
1390.62,0.032597
1377.12,0.034281
1363.62,0.033487
1350.12,0.027464
1336.62,0.029342
1323.12,0.034485
1309.62,0.035997
1296.12,0.042382
1282.61,0.044736
1269.11,0.056774
1255.61,0.069116
1242.11,0.079075
1228.61,0.073594
1215.11,0.054344
1201.61,0.049872
1188.11,0.057645
1174.61,0.072781
1161.1,0.083115
1147.6,0.088124
1134.1,0.090461
1120.6,0.083261
1107.1,0.076628
1093.6,0.06763
1080.1,0.060377
1066.6,0.059425
1053.09,0.067796
1039.59,0.065121
1026.09,0.058347
1012.59,0.051235
999.089,0.051309
985.588,0.051341
972.087,0.051056
958.586,0.053962
945.085,0.055908
931.583,0.051031
918.082,0.044517
904.581,0.038914
891.08,0.040068
877.579,0.041833
864.077,0.040194
850.576,0.038668
837.075,0.035499
823.574,0.034929
810.073,0.037728
796.571,0.031361
783.07,0.038798
769.569,0.047262
756.068,0.03976
742.566,0.041473
729.065,0.037955
715.564,0.039413
702.063,0.041326
688.562,0.042163
675.06,0.043367
661.559,0.048366
648.058,0.052239
634.5568,0.052888
621.056,0.054445
607.554,0.056107
594.053,0.057235
580.552,0.056444
567.051,0.057598
553.55,0.056666
540.048,0.055576
526.547,0.057804
513.046,0.059148
499.545,0.057861
486.044,0.059668
472.542,0.062543
459.041,0.062286
445.54,0.058647
432.039,0.057705
418.537,0.054426
405.036,0.05484
399.25,0.058907