File: converter_xlsx_FTIR/group1.xlsx-Silicone.csv
3996.36,0.002393
3982.86,0.002018
3969.36,0.002364
3955.85,0.002455
3942.35,0.002142
3928.85,0.001998
3915.35,0.001984
3901.85,0.002158
3888.35,0.002043
3874.85,0.002107
3861.35,0.002154
3847.84,0.001918
3834.34,0.002545
3820.84,0.002273
3807.34,0.002291
3793.84,0.002399
3780.34,0.002849
3766.84,0.003208
3753.34,0.003343
3739.83,0.002932
3726.33,0.003231
3712.83,0.003788
3699.33,0.003774
3685.83,0.003895
3672.33,0.004951
3658.83,0.005121
3645.33,0.00558
3631.83,0.006175
3618.32,0.006169
3604.82,0.006598
3591.32,0.006856
3577.82,0.00738
3564.32,0.008052
3550.82,0.008845
3537.32,0.00919
3523.82,0.009731
3510.31,0.009959
3496.81,0.010866
3483.31,0.011161
3469.81,0.011926
3456.31,0.012693
3442.81,0.013398
3429.31,0.013088
3415.81,0.013931
3402.3,0.013886
3388.8,0.014262
3375.3,0.014439
3361.8,0.014448
3348.3,0.014433
3334.8,0.0149
3321.3,0.015204
3307.8,0.015105
3294.29,0.015796
3280.79,0.015562
3267.29,0.015378
3253.79,0.014453
3240.29,0.014623
3226.79,0.013837
3213.29,0.013544
3199.79,0.013021
3186.29,0.013098
3172.78,0.012284
3159.28,0.01202
3145.78,0.011442
3132.28,0.011248
3118.78,0.011165
3105.28,0.011192
3091.78,0.010629
3078.28,0.010722
3064.77,0.010633
3051.27,0.01042
3037.77,0.010166
3024.27,0.009867
3010.77,0.010208
2997.27,0.011883
2983.77,0.018627
2970.27,0.060014
2956.76,0.069694
2943.26,0.021213
2929.76,0.01335
2916.26,0.014055
2902.76,0.018363
2889.26,0.011546
2875.76,0.009794
2862.26,0.008054
2848.75,0.007413
2835.25,0.007141
2821.75,0.006998
2808.25,0.007054
2794.75,0.006821
2781.25,0.005655
2767.75,0.004916
2754.25,0.004574
2740.75,0.004196
2727.24,0.004042
2713.74,0.003767
2700.24,0.003621
2686.74,0.003689
2673.24,0.003819
2659.74,0.003949
2646.24,0.003505
2632.74,0.002998
2619.23,0.003139
2605.73,0.002647
2592.23,0.002447
2578.73,0.002353
2565.23,0.002088
2551.73,0.002053
2538.23,0.002172
2524.73,0.00257
2511.22,0.002514
2497.72,0.002732
2484.22,0.001997
2470.72,0.002025
2457.22,0.001691
2443.72,0.001491
2430.22,0.001887
2416.72,0.001254
2403.22,0.00154
2389.71,0.001591
2376.21,0.001766
2362.71,0.002916
2349.21,0.00206
2335.71,0.002722
2322.21,0.002861
2308.71,0.001807
2295.21,0.001837
2281.7,0.00118
2268.2,0.00091
2254.7,0.000702
2241.2,0.000178
2227.7,-0.000273
2214.2,-4.2e-05
2200.7,-0.001127
2187.2,-0.000534
2173.69,-0.001007
2160.19,-0.002795
2146.69,-0.001374
2133.19,-0.001484
2119.69,-0.000851
2106.19,-0.001182
2092.69,-0.001481
2079.19,-0.000949
2065.68,-0.001907
2052.18,-0.002016
2038.68,-0.003183
2025.18,-0.00352
2011.68,-0.003456
1998.18,-0.003427
1984.68,-0.002775
1971.18,-0.003262
1957.68,-0.001182
1944.17,-0.000108
1930.67,0.000288
1917.17,0.000972
1903.67,0.001045
1890.17,0.001834
1876.67,0.001974
1863.17,0.002252
1849.67,0.00217
1836.16,0.002251
1822.66,0.002493
1809.16,0.00321
1795.66,0.003852
1782.16,0.004097
1768.66,0.004466
1755.16,0.004611
1741.66,0.005568
1728.15,0.006764
1714.65,0.006796
1701.15,0.008244
1687.65,0.011181
1674.15,0.014256
1660.65,0.018148
1647.15,0.021473
1633.65,0.021054
1620.15,0.019921
1606.64,0.018423
1593.14,0.017594
1579.64,0.016251
1566.14,0.015232
1552.64,0.016505
1539.14,0.016917
1525.64,0.015568
1512.14,0.014298
1498.63,0.0126
1485.13,0.0126
1471.63,0.01312
1458.13,0.015642
1444.63,0.020544
1431.13,0.018352
1417.63,0.031127
1404.13,0.031886
1390.62,0.021695
1377.12,0.016293
1363.62,0.015206
1350.12,0.014501
1336.62,0.014395
1323.12,0.01536
1309.62,0.017635
1296.12,0.021265
1282.61,0.030129
1269.11,0.096038
1255.61,0.348802
1242.11,0.103142
1228.61,0.093337
1215.11,0.097446
1201.61,0.102423
1188.11,0.108754
1174.61,0.117317
1161.1,0.126991
1147.6,0.138008
1134.1,0.156933
1120.6,0.196097
1107.1,0.287245
1093.6,0.427835
1080.1,0.521977
1066.6,0.5429
1053.09,0.538733
1039.59,0.549829
1026.09,0.614262
1012.59,0.793454
999.089,0.766833
985.588,0.473145
972.087,0.272372
958.586,0.175193
945.085,0.118566
931.583,0.085809
918.082,0.071862
904.581,0.070525
891.08,0.083098
877.579,0.136262
864.077,0.173938
850.576,0.140744
837.075,0.145556
823.574,0.244201
810.073,0.416008
796.571,0.71091
783.07,0.885416
769.569,0.627829
756.068,0.395473
742.566,0.273251
729.065,0.20114
715.564,0.173739
702.063,0.241095
688.562,0.241379
675.06,0.217978
661.559,0.230409
648.058,0.128444
634.5568,0.113623
621.056,0.110263
607.554,0.107373
594.053,0.108692
580.552,0.113494
567.051,0.120241
553.55,0.125607
540.048,0.127981
526.547,0.130888
513.046,0.142353
499.545,0.180476
486.044,0.263386
472.542,0.360464
459.041,0.383466
445.54,0.324701
432.039,0.240795
418.537,0.20774
405.036,0.358305
399.25,0.413508