File: converter_xlsx_FTIR/group2.xlsx-GIgi nylon8.csv
3996.36,0.105818,Unnamed: 2,Unnamed: 3,Unnamed: 4,Unnamed: 5,Unnamed: 6
3994.43,0.105396,,,,,
3992.5,0.105251,,,,,
3990.57,0.105295,,,,,
3988.64,0.105344,,,,,
3986.714,0.105281,,,,,
3984.79,0.105087,,,,,
3982.86,0.105059,,,,,
3980.93,0.105337,,,,,
3979,0.105574,,,,,
3977.07,0.105545,,,,,
3975.14,0.105407,,,,,
3973.21,0.105353,,,,,
3971.28,0.105408,,,,,
3969.36,0.105462,,,,,
3967.43,0.105402,,,,,
3965.5,0.105342,,,,,
3963.57,0.105397,,,,,
3961.64,0.105325,,,,,
3959.71,0.105097,,,,,
3957.78,0.104982,,,,,
3955.85,0.104939,,,,,
3953.93,0.104885,,,,,
3952,0.104784,,,,,
3950.07,0.104609,,,,,
3948.14,0.104541,,,,,
3946.21,0.1046,,,,,
3944.28,0.104688,,,,,
3942.35,0.104853,,,,,
3940.42,0.105114,,,,,
3938.5,0.105293,,,,,
3936.57,0.105121,,,,,
3934.64,0.104718,,,,,
3932.71,0.104408,,,,,
3930.78,0.104202,,,,,
3928.85,0.104142,,,,,
3926.92,0.10431,,,,,
3924.99,0.104496,,,,,
3923.07,0.104547,,,,,
3921.14,0.104473,,,,,
3919.21,0.104358,,,,,
3917.28,0.104437,,,,,
3915.35,0.104688,,,,,
3913.42,0.104819,,,,,
3911.49,0.104805,,,,,
3909.56,0.104783,,,,,red = nylon8
3907.64,0.104759,,,,,
3894.13,0.104212,,,,,
3880.63,0.10419,,,,,
3867.13,0.103955,,,,,
3853.63,0.104241,,,,,
3840.13,0.103665,,,,,
3826.63,0.103488,,,,,
3813.13,0.103318,,,,,
3799.63,0.103068,,,,,
3786.12,0.102674,,,,,
3772.62,0.102522,,,,,
3759.12,0.102472,,,,,
3745.62,0.102151,,,,,
3732.12,0.10176,,,,,
3718.62,0.101276,,,,,
3705.12,0.100611,,,,,
3691.62,0.1005,,,,,
3678.11,0.099556,,,,,
3664.61,0.099511,,,,,
3651.11,0.098554,,,,,
3637.61,0.099002,,,,,
3624.11,0.097778,,,,,
3610.61,0.098177,,,,,
3597.11,0.097778,,,,,
3583.61,0.097097,,,,,
3570.11,0.096497,,,,,
3556.6,0.095658,,,,,
3543.1,0.095352,,,,,
3529.6,0.095119,,,,,
3516.1,0.095256,,,,,
3502.6,0.094813,,,,,
3489.1,0.094309,,,,,
3475.6,0.093189,,,,,
3462.1,0.092336,,,,,
3448.59,0.091257,,,,,
3435.09,0.090755,,,,,
3421.59,0.091256,,,,,
3408.09,0.091811,,,,,
3394.59,0.0923,,,,,
3381.09,0.092501,,,,,
3367.59,0.093002,,,,,
3354.09,0.092249,,,,,
3340.58,0.092526,,,,,
3327.08,0.091489,,,,,
3313.58,0.090977,,,,,
3300.08,0.091074,,,,,
3286.58,0.091634,,,,,
3273.08,0.092284,,,,,
3259.58,0.093429,,,,,
3246.08,0.093651,,,,,
3232.58,0.093924,,,,,
3219.07,0.093802,,,,,
3205.57,0.093648,,,,,
3192.07,0.093589,,,,,
3178.57,0.093933,,,,,
3165.07,0.093902,,,,,
3151.57,0.094097,,,,,
3138.07,0.094632,,,,,
3124.57,0.094286,,,,,
3111.06,0.094622,,,,,
3097.56,0.094,,,,,
3084.06,0.093512,,,,,
3070.56,0.092049,,,,,
3057.06,0.093081,,,,,
3043.56,0.093541,,,,,
3030.06,0.093149,,,,,
3016.56,0.093115,,,,,
3003.05,0.090063,,,,,
2989.55,0.081976,,,,,
2976.05,0.055545,,,,,
2962.55,0.005232,,,,,
2949.05,0.027299,,,,,
2935.55,0.025478,,,,,
2922.05,0.032888,,,,,
2908.55,0.038967,,,,,
2895.04,0.055048,,,,,
2881.54,0.059102,,,,,
2868.04,0.049312,,,,,
2854.54,0.066901,,,,,
2841.04,0.07472,,,,,
2827.54,0.082473,,,,,
2814.04,0.084408,,,,,
2800.54,0.0871,,,,,
2787.04,0.088676,,,,,
2773.53,0.089219,,,,,
2760.03,0.089593,,,,,
2746.53,0.089764,,,,,
2733.03,0.089617,,,,,
2719.53,0.090865,,,,,
2706.03,0.09129,,,,,
2692.53,0.091318,,,,,
2679.03,0.091639,,,,,
2665.52,0.091621,,,,,
2652.02,0.091191,,,,,
2638.52,0.090095,,,,,
2625.02,0.088373,,,,,
2611.52,0.086292,,,,,
2598.02,0.084392,,,,,
2584.52,0.083132,,,,,
2571.02,0.081811,,,,,
2557.51,0.080892,,,,,
2544.01,0.080226,,,,,
2530.51,0.079385,,,,,
2517.01,0.078827,,,,,
2503.51,0.07884,,,,,
2490.01,0.08025,,,,,
2476.51,0.08052,,,,,
2463.01,0.081439,,,,,
2449.5,0.080779,,,,,
2436,0.081102,,,,,
2422.5,0.081859,,,,,
2409,0.082366,,,,,
2395.5,0.084096,,,,,
2382,0.085554,,,,,
2368.5,0.088538,,,,,
2355,0.089996,,,,,
2341.5,0.09045,,,,,
2327.99,0.090665,,,,,
2314.49,0.086037,,,,,
2300.99,0.081879,,,,,
2287.49,0.075954,,,,,
2273.99,0.068403,,,,,
2260.49,0.063457,,,,,
2246.99,0.058192,,,,,
2233.49,0.052771,,,,,
2219.98,0.050186,,,,,
2206.48,0.044371,,,,,
2192.98,0.039682,,,,,
2179.48,0.036003,,,,,
2165.98,0.03181,,,,,
2152.48,0.034161,,,,,
2138.98,0.045196,,,,,
2125.48,0.057581,,,,,
2111.97,0.05991,,,,,
2098.47,0.057054,,,,,
2084.97,0.057978,,,,,
2071.47,0.052806,,,,,
2057.97,0.047521,,,,,
2044.47,0.036967,,,,,
2030.97,0.030646,,,,,
2017.47,0.030323,,,,,
2003.97,0.034224,,,,,
1990.46,0.036637,,,,,
1976.96,0.030676,,,,,
1963.46,0.036957,,,,,
1949.96,0.046525,,,,,
1936.46,0.055011,,,,,
1922.96,0.063397,,,,,
1909.46,0.068482,,,,,
1895.96,0.072838,,,,,
1882.45,0.077012,,,,,
1868.95,0.080018,,,,,
1855.45,0.083119,,,,,
1841.95,0.086311,,,,,
1828.45,0.089383,,,,,
1814.95,0.093171,,,,,
1801.45,0.094129,,,,,
1787.95,0.09641,,,,,
1774.44,0.097149,,,,,
1760.94,0.094481,,,,,
1747.44,0.063098,,,,,
1733.94,-0.083101,,,,,
1720.44,-0.225193,,,,,
1706.94,-0.068525,,,,,
1693.44,0.035304,,,,,
1679.94,0.053637,,,,,
1666.43,0.068356,,,,,
1652.93,0.07557,,,,,
1639.43,0.078077,,,,,
1625.93,0.081597,,,,,
1612.43,0.085189,,,,,
1598.93,0.065525,,,,,
1585.43,0.078213,,,,,
1571.93,0.08247,,,,,
1558.43,0.087819,,,,,
1544.92,0.081504,,,,,
1531.42,0.078006,,,,,
1517.92,0.075539,,,,,
1504.42,0.068037,,,,,
1490.92,0.045364,,,,,
1477.42,0.027148,,,,,
1463.92,-0.016969,,,,,
1450.42,-0.026497,,,,,
1436.91,-0.042706,,,,,
1423.41,-0.063987,,,,,
1409.91,-0.029444,,,,,
1396.41,-0.008023,,,,,
1382.91,-0.023917,,,,,
1369.41,0.013607,,,,,
1355.91,0.021932,,,,,
1342.41,0.032047,,,,,
1328.9,0.012341,,,,,
1315.4,0.021493,,,,,
1301.9,-0.052121,,,,,
1288.4,-0.227323,,,,,
1274.9,-0.282648,,,,,
1261.4,-0.258361,,,,,
1247.9,-0.211731,,,,,
1234.4,-0.116337,,,,,
1220.89,-0.031903,,,,,
1207.39,0.000701,,,,,
1193.89,0.007134,,,,,
1180.39,0.029019,,,,,
1166.89,0.024132,,,,,
1153.39,0.00575,,,,,
1139.89,-0.08225,,,,,
1126.39,-0.148259,,,,,
1112.89,-0.125293,,,,,
1099.38,-0.013918,,,,,
1085.88,0.001393,,,,,
1072.38,-0.186179,,,,,
1058.88,-0.056766,,,,,
1045.38,0.001662,,,,,
1031.88,0.007289,,,,,
1018.38,0.020441,,,,,
1004.88,0.035111,,,,,
991.374,0.02426,,,,,
977.873,0.022663,,,,,
964.372,-0.03003,,,,,
950.871,-0.018203,,,,,
937.37,-0.021489,,,,,
923.868,0.01803,,,,,
910.367,0.042364,,,,,
896.866,0.05388,,,,,
883.365,0.032515,,,,,
869.864,-0.020293,,,,,
856.362,0.030987,,,,,
842.861,0.023737,,,,,
829.36,0.041285,,,,,
815.859,0.067858,,,,,
802.358,0.060495,,,,,
788.856,0.045986,,,,,
775.355,0.048149,,,,,
761.854,0.052335,,,,,
748.3527,-0.046513,,,,,
734.851,-0.06334,,,,,
721.35,0.045188,,,,,
707.849,-0.018101,,,,,
694.348,-0.022304,,,,,
680.847,0.004337,,,,,
667.345,0.0342,,,,,
653.844,0.020648,,,,,
640.343,-0.016156,,,,,
626.842,-0.023208,,,,,
613.341,-0.048865,,,,,
599.839,-0.009392,,,,,
586.338,0.043331,,,,,
572.837,0.041959,,,,,
559.336,0.053609,,,,,
545.835,0.066151,,,,,
532.333,0.071751,,,,,
518.832,0.077572,,,,,
505.331,0.068822,,,,,
491.83,0.070134,,,,,
478.329,0.075484,,,,,
464.827,0.0766,,,,,
451.326,0.071595,,,,,
437.825,0.067398,,,,,
424.324,0.061758,,,,,
410.822,0.055208,,,,,
399.25,0.050832,,,,,